Start Time:  08-Mar-17 23:49:20           Time Completed:  08-Mar-17 23:55:53       Elapsed Time:  00:06:48
Sample ID:     170308, MOGV Co-Ni 53,30mg, T-run 1-2

Experiment:    C:\IDEASVSM\InduCat\Experiments\hys_c_300(1)_03s_master06\hys_c_300(1)_03s_master06.exp
Data File:     C:\IDEASVSM\InduCat\170308, MOGV Co-Ni 53,30mg, T-run 1-2 (ProfileData)\170308, MOGV Co-Ni 53,30mg, T-run 1-2#129.txt
Plot File:     C:\IDEASVSM\InduCat\170308, MOGV Co-Ni 53,30mg, T-run 1-2 (ProfileData)\170308, MOGV Co-Ni 53,30mg, T-run 1-2#129.oc2
VSM Exp File:  C:\IDEASVSM\InduCat\Experiments\hys_c_300(1)_03s_master06\hys_c_300(1)_03s_master06.stp
VSM Data File: C:\IDEASVSM\InduCat\170308, MOGV Co-Ni 53,30mg, T-run 1-2 (ProfileData)\170308, MOGV Co-Ni 53,30mg, T-run 1-2#129.dat

***DATA***

Field(G)	 Moment(emu)	 Temperature(C)	
 299.555 	 0.604109 	 550.006 	
 298.486 	 0.603288 	 550.001 	
 297.454 	 0.602258 	 550.003 	
 296.519 	 0.601159 	 550.005 	
 295.453 	 0.600065 	 550.005 	
 294.492 	 0.599009 	 550.013 	
 293.574 	 0.597917 	 550.004 	
 292.498 	 0.596727 	 550.004 	
 291.371 	 0.595485 	 550.007 	
 290.531 	 0.594433 	 550.008 	
 289.447 	 0.593171 	 550.012 	
 288.48 	 0.592049 	 550.008 	
 287.408 	 0.590879 	 550.009 	
 286.526 	 0.589662 	 550.014 	
 285.484 	 0.588486 	 550.013 	
 284.552 	 0.587189 	 550.01 	
 283.457 	 0.586039 	 550.009 	
 282.549 	 0.58492 	 550.01 	
 281.535 	 0.583743 	 550.009 	
 280.51 	 0.582476 	 550.007 	
 279.551 	 0.581248 	 550.01 	
 278.441 	 0.580048 	 550.011 	
 277.52 	 0.578737 	 550.012 	
 276.569 	 0.577587 	 550.006 	
 275.463 	 0.576367 	 550.008 	
 274.617 	 0.575149 	 550.007 	
 273.397 	 0.573834 	 550.013 	
 272.524 	 0.572549 	 550.013 	
 271.52 	 0.571353 	 550.009 	
 270.484 	 0.570087 	 550.007 	
 269.554 	 0.568877 	 550.006 	
 268.491 	 0.56762 	 550.007 	
 267.563 	 0.566375 	 550.009 	
 266.467 	 0.565007 	 550.012 	
 265.469 	 0.563752 	 550.011 	
 264.526 	 0.562573 	 550.01 	
 263.933 	 0.561713 	 550.013 	
 262.686 	 0.56028 	 550.017 	
 261.554 	 0.558716 	 550.016 	
 260.553 	 0.557428 	 550.015 	
 259.605 	 0.5562 	 550.015 	
 258.517 	 0.554699 	 550.014 	
 257.57 	 0.553556 	 550.013 	
 256.547 	 0.55222 	 550.012 	
 255.464 	 0.550908 	 550.014 	
 254.608 	 0.549619 	 550.012 	
 253.552 	 0.548349 	 550.017 	
 252.523 	 0.547043 	 550.02 	
 251.514 	 0.545665 	 550.021 	
 250.567 	 0.544416 	 550.019 	
 249.528 	 0.543193 	 550.017 	
 248.668 	 0.541905 	 550.014 	
 247.507 	 0.540548 	 550.013 	
 246.575 	 0.539173 	 550.014 	
 245.482 	 0.537932 	 550.018 	
 244.584 	 0.536648 	 550.018 	
 243.602 	 0.535366 	 550.018 	
 242.452 	 0.53394 	 550.013 	
 241.63 	 0.53262 	 550.015 	
 240.47 	 0.53125 	 550.018 	
 239.609 	 0.529969 	 550.018 	
 238.587 	 0.528709 	 550.015 	
 237.567 	 0.527262 	 550.019 	
 236.564 	 0.526001 	 550.022 	
 235.624 	 0.524645 	 550.016 	
 234.428 	 0.523279 	 550.021 	
 233.669 	 0.52195 	 550.021 	
 232.519 	 0.520661 	 550.025 	
 231.585 	 0.519347 	 550.023 	
 230.589 	 0.51797 	 550.021 	
 229.633 	 0.516614 	 550.02 	
 228.549 	 0.515247 	 550.021 	
 227.895 	 0.514182 	 550.021 	
 226.776 	 0.512845 	 550.022 	
 225.529 	 0.511203 	 550.021 	
 224.615 	 0.509744 	 550.022 	
 223.613 	 0.508441 	 550.019 	
 222.488 	 0.507044 	 550.02 	
 221.582 	 0.505664 	 550.025 	
 220.678 	 0.504295 	 550.025 	
 219.589 	 0.502973 	 550.021 	
 218.642 	 0.501516 	 550.02 	
 217.684 	 0.500151 	 550.017 	
 216.598 	 0.498687 	 550.02 	
 215.646 	 0.497346 	 550.02 	
 214.646 	 0.495986 	 550.021 	
 213.727 	 0.494536 	 550.027 	
 212.526 	 0.49307 	 550.027 	
 211.743 	 0.491739 	 550.027 	
 210.516 	 0.490217 	 550.026 	
 209.511 	 0.488776 	 550.02 	
 208.815 	 0.487648 	 550.02 	
 207.722 	 0.485977 	 550.028 	
 206.594 	 0.484349 	 550.022 	
 205.523 	 0.48297 	 550.022 	
 204.638 	 0.481818 	 550.021 	
 203.643 	 0.480467 	 550.023 	
 202.662 	 0.478844 	 550.022 	
 201.647 	 0.477612 	 550.021 	
 200.652 	 0.476194 	 550.02 	
 199.695 	 0.474633 	 550.02 	
 198.662 	 0.473194 	 550.02 	
 197.713 	 0.471751 	 550.026 	
 196.486 	 0.470345 	 550.016 	
 195.728 	 0.468824 	 550.017 	
 194.523 	 0.467436 	 550.02 	
 193.752 	 0.465879 	 550.02 	
 192.716 	 0.464509 	 550.02 	
 191.667 	 0.463342 	 550.02 	
 191.17 	 0.462117 	 550.018 	
 190 	 0.460069 	 550.021 	
 188.533 	 0.458673 	 550.019 	
 187.689 	 0.45708 	 550.017 	
 186.713 	 0.455724 	 550.015 	
 185.64 	 0.454114 	 550.017 	
 184.625 	 0.452729 	 550.019 	
 183.764 	 0.451255 	 550.016 	
 182.583 	 0.449888 	 550.015 	
 181.717 	 0.448307 	 550.009 	
 180.654 	 0.446841 	 550.01 	
 179.834 	 0.445462 	 550.016 	
 178.797 	 0.443882 	 550.017 	
 177.508 	 0.442306 	 550.018 	
 176.566 	 0.440817 	 550.016 	
 175.687 	 0.439705 	 550.016 	
 174.894 	 0.438271 	 550.012 	
 173.876 	 0.436414 	 550.014 	
 172.424 	 0.434399 	 550.014 	
 171.686 	 0.433245 	 550.022 	
 170.762 	 0.431596 	 550.016 	
 169.746 	 0.430156 	 550.017 	
 168.79 	 0.428561 	 550.017 	
 167.63 	 0.427068 	 550.017 	
 166.71 	 0.425508 	 550.022 	
 165.742 	 0.424071 	 550.019 	
 164.766 	 0.422595 	 550.019 	
 163.811 	 0.42075 	 550.017 	
 162.629 	 0.419408 	 550.015 	
 162.085 	 0.41782 	 550.016 	
 160.962 	 0.416151 	 550.016 	
 159.998 	 0.414569 	 550.016 	
 158.641 	 0.41304 	 550.015 	
 157.533 	 0.411503 	 550.016 	
 156.658 	 0.40988 	 550.017 	
 155.721 	 0.40839 	 550.022 	
 154.738 	 0.406884 	 550.021 	
 154.057 	 0.405723 	 550.018 	
 152.94 	 0.403858 	 550.016 	
 151.733 	 0.40201 	 550.015 	
 150.751 	 0.40043 	 550.013 	
 149.703 	 0.398732 	 550.016 	
 148.851 	 0.397143 	 550.014 	
 147.565 	 0.395526 	 550.01 	
 146.971 	 0.393986 	 550.008 	
 145.676 	 0.392042 	 550.008 	
 144.829 	 0.39047 	 550.007 	
 143.714 	 0.388851 	 550.013 	
 142.664 	 0.387307 	 550.011 	
 141.929 	 0.385798 	 550.009 	
 140.576 	 0.383995 	 550.007 	
 139.953 	 0.382601 	 550.006 	
 138.681 	 0.380907 	 550.009 	
 137.734 	 0.379238 	 550.01 	
 136.733 	 0.377643 	 550.008 	
 135.743 	 0.37605 	 550.01 	
 134.667 	 0.374475 	 550.01 	
 133.742 	 0.372788 	 550.011 	
 132.805 	 0.370974 	 550.009 	
 131.817 	 0.369441 	 550.01 	
 130.694 	 0.367727 	 550.006 	
 129.877 	 0.366077 	 550.009 	
 128.769 	 0.364451 	 550.007 	
 127.754 	 0.362744 	 550.006 	
 126.832 	 0.361026 	 550.006 	
 125.674 	 0.359276 	 550.005 	
 124.793 	 0.357649 	 550.008 	
 123.743 	 0.355998 	 550.008 	
 122.796 	 0.354225 	 550.006 	
 121.773 	 0.35249 	 550.006 	
 120.805 	 0.350763 	 550.008 	
 119.809 	 0.349128 	 550.013 	
 118.784 	 0.347424 	 550.013 	
 117.999 	 0.346127 	 550.012 	
 117.077 	 0.344347 	 550.013 	
 115.766 	 0.342222 	 550.012 	
 114.831 	 0.340528 	 550.011 	
 113.882 	 0.338818 	 550.013 	
 112.765 	 0.336862 	 550.014 	
 111.783 	 0.33523 	 550.013 	
 110.765 	 0.333519 	 550.013 	
 109.828 	 0.331823 	 550.014 	
 108.807 	 0.32997 	 550.017 	
 107.819 	 0.328333 	 550.016 	
 106.804 	 0.326423 	 550.014 	
 105.738 	 0.324697 	 550.012 	
 104.789 	 0.322839 	 550.017 	
 103.804 	 0.321223 	 550.022 	
 102.822 	 0.319497 	 550.022 	
 101.9 	 0.31762 	 550.023 	
 100.834 	 0.315829 	 550.022 	
 99.8012 	 0.313946 	 550.019 	
 98.867 	 0.312205 	 550.021 	
 97.8401 	 0.310304 	 550.022 	
 96.7981 	 0.308431 	 550.018 	
 95.7951 	 0.306646 	 550.016 	
 94.8849 	 0.304872 	 550.022 	
 93.8011 	 0.303102 	 550.026 	
 92.8849 	 0.301158 	 550.025 	
 91.825 	 0.299352 	 550.025 	
 90.792 	 0.297431 	 550.02 	
 89.8818 	 0.295712 	 550.018 	
 88.9237 	 0.293879 	 550.017 	
 87.807 	 0.291918 	 550.015 	
 86.8548 	 0.28995 	 550.02 	
 85.8728 	 0.28812 	 550.022 	
 84.8398 	 0.286176 	 550.023 	
 83.8308 	 0.284435 	 550.023 	
 82.8697 	 0.282618 	 550.022 	
 81.8847 	 0.280676 	 550.022 	
 80.9655 	 0.27913 	 550.024 	
 80.217 	 0.277457 	 550.023 	
 78.8337 	 0.274933 	 550.024 	
 77.8667 	 0.273055 	 550.026 	
 76.9115 	 0.271104 	 550.026 	
 75.8816 	 0.269178 	 550.015 	
 74.9355 	 0.267263 	 550.015 	
 73.7618 	 0.265307 	 550.015 	
 72.9534 	 0.263327 	 550.019 	
 71.8576 	 0.261476 	 550.018 	
 70.8665 	 0.259573 	 550.018 	
 69.8336 	 0.257536 	 550.023 	
 68.9084 	 0.255583 	 550.021 	
 67.9294 	 0.253749 	 550.018 	
 66.8695 	 0.251736 	 550.02 	
 65.8994 	 0.249728 	 550.018 	
 64.9053 	 0.248001 	 550.016 	
 63.8844 	 0.245987 	 550.017 	
 62.8963 	 0.243897 	 550.015 	
 61.8754 	 0.242022 	 550.015 	
 60.9622 	 0.239971 	 550.021 	
 59.9232 	 0.237942 	 550.024 	
 58.9022 	 0.235852 	 550.023 	
 57.9022 	 0.233899 	 550.021 	
 56.9262 	 0.231888 	 550.022 	
 55.8543 	 0.229782 	 550.023 	
 54.9411 	 0.227797 	 550.026 	
 53.9381 	 0.225725 	 550.026 	
 52.9351 	 0.223631 	 550.022 	
 51.9081 	 0.221681 	 550.021 	
 50.9141 	 0.219602 	 550.022 	
 49.8751 	 0.21762 	 550.019 	
 48.9949 	 0.215639 	 550.02 	
 47.8811 	 0.213354 	 550.023 	
 46.8721 	 0.211373 	 550.022 	
 46.0427 	 0.209374 	 550.022 	
 45.0697 	 0.207656 	 550.026 	
 44.2553 	 0.205654 	 550.029 	
 42.8301 	 0.203021 	 550.027 	
 41.9858 	 0.200948 	 550.023 	
 40.9738 	 0.198766 	 550.021 	
 39.8869 	 0.19657 	 550.024 	
 39.0037 	 0.194586 	 550.023 	
 37.9198 	 0.192441 	 550.027 	
 36.9767 	 0.190291 	 550.024 	
 35.9497 	 0.188191 	 550.025 	
 34.9707 	 0.186026 	 550.018 	
 33.9437 	 0.183791 	 550.025 	
 32.8928 	 0.18164 	 550.023 	
 31.9317 	 0.179588 	 550.024 	
 31.0365 	 0.177564 	 550.026 	
 29.9586 	 0.175267 	 550.028 	
 28.9287 	 0.173176 	 550.032 	
 28.0035 	 0.170902 	 550.031 	
 26.9735 	 0.168562 	 550.022 	
 25.9406 	 0.166403 	 550.021 	
 24.9585 	 0.164166 	 550.014 	
 23.8986 	 0.162042 	 550.025 	
 23.0423 	 0.159788 	 550.024 	
 21.9645 	 0.157528 	 550.027 	
 20.9704 	 0.155459 	 550.026 	
 19.9375 	 0.153246 	 550.025 	
 18.9704 	 0.151062 	 550.018 	
 17.9973 	 0.148762 	 550.019 	
 16.9614 	 0.146513 	 550.023 	
 15.9374 	 0.144217 	 550.025 	
 14.9673 	 0.141943 	 550.016 	
 14.0452 	 0.139791 	 550.019 	
 12.9344 	 0.137213 	 550.017 	
 11.9793 	 0.134926 	 550.022 	
 10.9583 	 0.132765 	 550.022 	
 9.9912 	 0.130537 	 550.022 	
 9.0301 	 0.128052 	 550.02 	
 7.95823 	 0.12586 	 550.021 	
 7.29055 	 0.124259 	 550.018 	
 6.16478 	 0.121684 	 550.012 	
 5.05997 	 0.118843 	 550.014 	
 3.9881 	 0.116575 	 550.018 	
 2.97011 	 0.114263 	 550.018 	
 2.04195 	 0.111837 	 550.018 	
 0.997024 	 0.109524 	 550.024 	
 0.00890429 	 0.107168 	 550.022 	
-1.06978 	 0.104738 	 550.016 	
-2.03168 	 0.102296 	 550.018 	
-2.9786 	 0.0999772 	 550.017 	
-3.98245 	 0.0974958 	 550.023 	
-5.00728 	 0.0950348 	 550.023 	
-5.98716 	 0.0925335 	 550.019 	
-7.006 	 0.0902755 	 550.019 	
-7.86302 	 0.0880534 	 550.022 	
-9.02869 	 0.0856787 	 550.016 	
-10.0146 	 0.0831794 	 550.013 	
-10.9405 	 0.0808278 	 550.015 	
-11.9204 	 0.0783236 	 550.015 	
-12.9722 	 0.0758522 	 550.01 	
-13.9641 	 0.0734628 	 550.018 	
-14.9679 	 0.0711418 	 550.016 	
-15.9178 	 0.0687382 	 550.02 	
-16.9636 	 0.0662127 	 550.02 	
-18.0274 	 0.0637628 	 550.019 	
-18.9204 	 0.0613762 	 550.021 	
-19.8943 	 0.0589733 	 550.02 	
-20.9731 	 0.0564213 	 550.018 	
-21.9379 	 0.0541063 	 550.024 	
-22.8909 	 0.0515855 	 550.023 	
-24.0056 	 0.0490252 	 550.025 	
-24.8926 	 0.046576 	 550.026 	
-25.9564 	 0.044075 	 550.021 	
-27.0112 	 0.0417079 	 550.025 	
-27.9521 	 0.0391985 	 550.025 	
-28.6533 	 0.0373142 	 550.024 	
-29.5702 	 0.0351492 	 550.025 	
-30.9247 	 0.0318802 	 550.024 	
-32.0394 	 0.0291082 	 550.023 	
-32.9564 	 0.0267922 	 550.023 	
-33.9422 	 0.0243602 	 550.022 	
-34.9371 	 0.0219247 	 550.024 	
-35.8331 	 0.0193442 	 550.024 	
-37.0137 	 0.0168143 	 550.02 	
-37.8618 	 0.0144002 	 550.019 	
-39.0095 	 0.0118532 	 550.02 	
-39.9744 	 0.00934607 	 550.018 	
-40.9003 	 0.00679218 	 550.023 	
-41.9281 	 0.00440858 	 550.024 	
-42.944 	 0.00184236 	 550.024 	
-43.9238 	-0.000733771 	 550.022 	
-44.9756 	-0.00307719 	 550.019 	
-45.9136 	-0.00558715 	 550.018 	
-46.9204 	-0.00801935 	 550.019 	
-47.9153 	-0.0106284 	 550.019 	
-48.9311 	-0.0130796 	 550.022 	
-49.8721 	-0.0155324 	 550.022 	
-50.9628 	-0.0180872 	 550.024 	
-51.9007 	-0.0204854 	 550.022 	
-52.8866 	-0.0230417 	 550.021 	
-53.9204 	-0.0255898 	 550.017 	
-54.8973 	-0.0281364 	 550.016 	
-55.8592 	-0.0305847 	 550.014 	
-56.8691 	-0.0330946 	 550.017 	
-57.9358 	-0.0357235 	 550.017 	
-58.9337 	-0.0382017 	 550.016 	
-59.8327 	-0.0406227 	 550.015 	
-60.9564 	-0.0432119 	 550.015 	
-61.8464 	-0.0455353 	 550.021 	
-62.8143 	-0.0480303 	 550.02 	
-63.905 	-0.0506576 	 550.021 	
-64.768 	-0.0529369 	 550.017 	
-65.5471 	-0.0548697 	 550.016 	
-66.7847 	-0.0581041 	 550.01 	
-67.9474 	-0.0607356 	 550.009 	
-68.8254 	-0.0632411 	 550.01 	
-69.8952 	-0.0657114 	 550.012 	
-70.8691 	-0.0682386 	 550.013 	
-71.8699 	-0.0707362 	 550.01 	
-72.8198 	-0.0732944 	 550.013 	
-73.8716 	-0.0759 	 550.012 	
-74.8545 	-0.0784493 	 550.008 	
-75.8764 	-0.0808927 	 550.008 	
-76.8532 	-0.0836808 	 550.014 	
-77.8451 	-0.0861029 	 550.013 	
-78.843 	-0.0886484 	 550.013 	
-79.8528 	-0.0911673 	 550.017 	
-80.7997 	-0.0937251 	 550.016 	
-81.8545 	-0.096096 	 550.015 	
-82.8734 	-0.0986142 	 550.012 	
-83.8113 	-0.101193 	 550.009 	
-84.905 	-0.103718 	 550.01 	
-85.807 	-0.10616 	 550.008 	
-86.8858 	-0.108795 	 550.008 	
-87.9016 	-0.111365 	 550.009 	
-88.8545 	-0.113779 	 550.01 	
-89.8973 	-0.116263 	 550.009 	
-90.8263 	-0.118723 	 550.01 	
-91.8511 	-0.12123 	 550.008 	
-92.816 	-0.123791 	 550.01 	
-93.8139 	-0.126253 	 550.011 	
-94.8237 	-0.1289 	 550.013 	
-95.8156 	-0.131467 	 550.014 	
-96.7925 	-0.133878 	 550.02 	
-97.8892 	-0.136448 	 550.018 	
-98.7732 	-0.138849 	 550.018 	
-99.819 	-0.141537 	 550.017 	
-100.874 	-0.144162 	 550.017 	
-101.767 	-0.146542 	 550.017 	
-102.492 	-0.148365 	 550.015 	
-103.583 	-0.15119 	 550.015 	
-104.841 	-0.154274 	 550.015 	
-105.788 	-0.156685 	 550.014 	
-106.846 	-0.159324 	 550.014 	
-107.778 	-0.161824 	 550.015 	
-108.731 	-0.164438 	 550.019 	
-109.792 	-0.166903 	 550.018 	
-110.81 	-0.169436 	 550.012 	
-111.808 	-0.171842 	 550.012 	
-112.848 	-0.174422 	 550.018 	
-113.801 	-0.176942 	 550.013 	
-114.739 	-0.179424 	 550.014 	
-115.755 	-0.182046 	 550.022 	
-116.819 	-0.184521 	 550.022 	
-117.843 	-0.187231 	 550.016 	
-118.799 	-0.189604 	 550.017 	
-119.776 	-0.192111 	 550.017 	
-120.777 	-0.194698 	 550.017 	
-121.85 	-0.197145 	 550.018 	
-122.752 	-0.1997 	 550.018 	
-123.831 	-0.20223 	 550.016 	
-124.685 	-0.204649 	 550.016 	
-125.76 	-0.207133 	 550.015 	
-126.716 	-0.209558 	 550.017 	
-127.78 	-0.212258 	 550.018 	
-128.778 	-0.214767 	 550.019 	
-129.797 	-0.21734 	 550.019 	
-130.75 	-0.219693 	 550.018 	
-131.742 	-0.222148 	 550.017 	
-132.772 	-0.224797 	 550.016 	
-133.782 	-0.227175 	 550.018 	
-134.693 	-0.229717 	 550.018 	
-135.814 	-0.23227 	 550.023 	
-136.734 	-0.2346 	 550.022 	
-137.759 	-0.237106 	 550.023 	
-138.565 	-0.239259 	 550.023 	
-139.389 	-0.24133 	 550.023 	
-140.767 	-0.244744 	 550.019 	
-141.639 	-0.24699 	 550.02 	
-142.847 	-0.24968 	 550.018 	
-143.749 	-0.252213 	 550.016 	
-144.654 	-0.254584 	 550.019 	
-145.736 	-0.257139 	 550.016 	
-146.76 	-0.259501 	 550.021 	
-147.728 	-0.261949 	 550.021 	
-148.774 	-0.264494 	 550.023 	
-149.727 	-0.266943 	 550.023 	
-150.659 	-0.269416 	 550.022 	
-151.771 	-0.271834 	 550.023 	
-152.84 	-0.274339 	 550.024 	
-153.715 	-0.276695 	 550.022 	
-154.683 	-0.279102 	 550.023 	
-155.684 	-0.281593 	 550.022 	
-156.808 	-0.284074 	 550.02 	
-157.701 	-0.286538 	 550.019 	
-158.711 	-0.289018 	 550.019 	
-159.79 	-0.291391 	 550.019 	
-160.784 	-0.293883 	 550.025 	
-161.686 	-0.296199 	 550.021 	
-162.693 	-0.298675 	 550.02 	
-163.727 	-0.301143 	 550.019 	
-164.614 	-0.303467 	 550.019 	
-165.72 	-0.306009 	 550.016 	
-166.673 	-0.308428 	 550.017 	
-167.742 	-0.310882 	 550.017 	
-168.752 	-0.313358 	 550.016 	
-169.639 	-0.315603 	 550.015 	
-170.772 	-0.31809 	 550.016 	
-171.698 	-0.320468 	 550.018 	
-172.708 	-0.322948 	 550.022 	
-173.718 	-0.325238 	 550.015 	
-174.605 	-0.327312 	 550.017 	
-175.399 	-0.329252 	 550.019 	
-176.591 	-0.332196 	 550.014 	
-177.667 	-0.334806 	 550.014 	
-178.686 	-0.33723 	 550.013 	
-179.687 	-0.339734 	 550.013 	
-180.649 	-0.342035 	 550.013 	
-181.718 	-0.344549 	 550.009 	
-182.659 	-0.346926 	 550.013 	
-183.636 	-0.349351 	 550.009 	
-184.763 	-0.351645 	 550.009 	
-185.623 	-0.353862 	 550.009 	
-186.69 	-0.356258 	 550.009 	
-187.679 	-0.35857 	 550.009 	
-188.605 	-0.360815 	 550.011 	
-189.644 	-0.363197 	 550.019 	
-190.657 	-0.36562 	 550.017 	
-191.619 	-0.368092 	 550.022 	
-192.722 	-0.370334 	 550.018 	
-193.582 	-0.372571 	 550.017 	
-194.682 	-0.374837 	 550.018 	
-195.689 	-0.377139 	 550.019 	
-196.653 	-0.379558 	 550.015 	
-197.648 	-0.381879 	 550.017 	
-198.664 	-0.384298 	 550.015 	
-199.674 	-0.386633 	 550.015 	
-200.633 	-0.388791 	 550.015 	
-201.58 	-0.391029 	 550.017 	
-202.686 	-0.393547 	 550.016 	
-203.689 	-0.395807 	 550.016 	
-204.639 	-0.398034 	 550.013 	
-205.61 	-0.400374 	 550.012 	
-206.665 	-0.402679 	 550.013 	
-207.627 	-0.404835 	 550.014 	
-208.679 	-0.407146 	 550.015 	
-209.596 	-0.409475 	 550.009 	
-210.402 	-0.411343 	 550.015 	
-211.439 	-0.4132 	 550.013 	
-212.49 	-0.416027 	 550.006 	
-213.509 	-0.418501 	 550.008 	
-214.657 	-0.420843 	 550.005 	
-215.613 	-0.423026 	 550.011 	
-216.632 	-0.425303 	 550.012 	
-217.6 	-0.427536 	 550.008 	
-218.615 	-0.429765 	 550.01 	
-219.658 	-0.43222 	 550.013 	
-220.608 	-0.434404 	 550.009 	
-221.597 	-0.436596 	 550.011 	
-222.628 	-0.438787 	 550.013 	
-223.668 	-0.441019 	 550.01 	
-224.576 	-0.443306 	 550.009 	
-225.591 	-0.445516 	 550.008 	
-226.472 	-0.447684 	 550.008 	
-227.692 	-0.450115 	 550.008 	
-228.591 	-0.452267 	 550.007 	
-229.544 	-0.45437 	 550.006 	
-230.635 	-0.456816 	 550.007 	
-231.561 	-0.45894 	 550.008 	
-232.549 	-0.461099 	 550.009 	
-233.643 	-0.463231 	 550.007 	
-234.485 	-0.465428 	 550.007 	
-235.63 	-0.467695 	 550.013 	
-236.598 	-0.469846 	 550.008 	
-237.596 	-0.471914 	 550.006 	
-238.636 	-0.474086 	 550.002 	
-239.502 	-0.476205 	 550 	
-240.55 	-0.478356 	 550.008 	
-241.599 	-0.480574 	 550.008 	
-242.582 	-0.482736 	 550.01 	
-243.541 	-0.484892 	 550.008 	
-244.539 	-0.486995 	 550.007 	
-245.591 	-0.489101 	 550.01 	
-246.621 	-0.491306 	 550.011 	
-247.484 	-0.493327 	 550.01 	
-248.38 	-0.494949 	 550.014 	
-249.234 	-0.496937 	 550.012 	
-250.595 	-0.499799 	 550.009 	
-251.521 	-0.501944 	 550.007 	
-252.555 	-0.503939 	 550.007 	
-253.493 	-0.506117 	 550.014 	
-254.655 	-0.508366 	 550.011 	
-255.524 	-0.510331 	 550.01 	
-256.513 	-0.512426 	 550.015 	
-257.58 	-0.51469 	 550.012 	
-258.515 	-0.516761 	 550.012 	
-259.534 	-0.518802 	 550.01 	
-260.508 	-0.520831 	 550.01 	
-261.565 	-0.523015 	 550.011 	
-262.56 	-0.525163 	 550.012 	
-263.546 	-0.527238 	 550.012 	
-264.469 	-0.529168 	 550.02 	
-265.566 	-0.531337 	 550.021 	
-266.534 	-0.533481 	 550.014 	
-267.49 	-0.535355 	 550.019 	
-268.577 	-0.537473 	 550.017 	
-269.5 	-0.539485 	 550.014 	
-270.483 	-0.541433 	 550.014 	
-271.52 	-0.543394 	 550.018 	
-272.503 	-0.545552 	 550.014 	
-273.495 	-0.547613 	 550.015 	
-274.541 	-0.549698 	 550.018 	
-275.517 	-0.551661 	 550.018 	
-276.506 	-0.553778 	 550.013 	
-277.444 	-0.555645 	 550.015 	
-278.457 	-0.557853 	 550.015 	
-279.602 	-0.559931 	 550.012 	
-280.513 	-0.561867 	 550.013 	
-281.571 	-0.563844 	 550.011 	
-282.511 	-0.565907 	 550.01 	
-283.533 	-0.567826 	 550.01 	
-284.145 	-0.569099 	 550.01 	
-285.193 	-0.571315 	 550.012 	
-286.518 	-0.573794 	 550.011 	
-287.501 	-0.57579 	 550.017 	
-288.481 	-0.577751 	 550.016 	
-289.511 	-0.579774 	 550.015 	
-290.452 	-0.581756 	 550.015 	
-291.453 	-0.5837 	 550.013 	
-292.442 	-0.585768 	 550.008 	
-293.506 	-0.587871 	 550.007 	
-294.453 	-0.589733 	 550.008 	
-295.43 	-0.591662 	 550.011 	
-296.434 	-0.593677 	 550.011 	
-297.488 	-0.595643 	 550.016 	
-298.471 	-0.59758 	 550.016 	
-299.496 	-0.59944 	 550.017 	
-300.059 	-0.601194 	 550.014 	
-299.64 	-0.601947 	 550.013 	
-298.459 	-0.601379 	 550.016 	
-297.422 	-0.600536 	 550.018 	
-296.592 	-0.59962 	 550.016 	
-295.598 	-0.598663 	 550.013 	
-294.525 	-0.597629 	 550.016 	
-293.593 	-0.596543 	 550.012 	
-292.499 	-0.595449 	 550.014 	
-291.567 	-0.59436 	 550.015 	
-290.554 	-0.59319 	 550.011 	
-289.514 	-0.592115 	 550.012 	
-288.478 	-0.590866 	 550.012 	
-287.513 	-0.589754 	 550.017 	
-286.629 	-0.588618 	 550.018 	
-285.562 	-0.587367 	 550.019 	
-284.546 	-0.586262 	 550.02 	
-283.437 	-0.58497 	 550.013 	
-282.467 	-0.583709 	 550.015 	
-281.606 	-0.58255 	 550.016 	
-280.489 	-0.581282 	 550.014 	
-279.587 	-0.580128 	 550.014 	
-278.85 	-0.579199 	 550.016 	
-277.69 	-0.57787 	 550.012 	
-276.47 	-0.576383 	 550.011 	
-275.616 	-0.575274 	 550.018 	
-274.46 	-0.573973 	 550.018 	
-273.507 	-0.572785 	 550.017 	
-272.419 	-0.57147 	 550.016 	
-271.526 	-0.570225 	 550.014 	
-270.474 	-0.569017 	 550.02 	
-269.521 	-0.567796 	 550.021 	
-268.592 	-0.566564 	 550.018 	
-267.469 	-0.565264 	 550.018 	
-266.522 	-0.563946 	 550.018 	
-265.473 	-0.562724 	 550.016 	
-264.538 	-0.561505 	 550.016 	
-263.585 	-0.560283 	 550.012 	
-262.485 	-0.559033 	 550.015 	
-261.502 	-0.557693 	 550.015 	
-260.469 	-0.556415 	 550.015 	
-259.552 	-0.555173 	 550.019 	
-258.503 	-0.553845 	 550.018 	
-257.472 	-0.552537 	 550.022 	
-256.441 	-0.551304 	 550.022 	
-255.476 	-0.550034 	 550.016 	
-254.49 	-0.54873 	 550.02 	
-253.556 	-0.547433 	 550.02 	
-252.459 	-0.546171 	 550.021 	
-251.458 	-0.544812 	 550.023 	
-250.445 	-0.543549 	 550.018 	
-249.528 	-0.542282 	 550.021 	
-248.584 	-0.540932 	 550.019 	
-247.445 	-0.539597 	 550.013 	
-246.442 	-0.538237 	 550.013 	
-245.498 	-0.53698 	 550.011 	
-244.473 	-0.535766 	 550.011 	
-243.523 	-0.534451 	 550.011 	
-242.678 	-0.533338 	 550.019 	
-241.851 	-0.532174 	 550.017 	
-240.52 	-0.5304 	 550.014 	
-239.472 	-0.529071 	 550.016 	
-238.561 	-0.527749 	 550.017 	
-237.527 	-0.52636 	 550.018 	
-236.49 	-0.525071 	 550.018 	
-235.522 	-0.523744 	 550.016 	
-234.515 	-0.522392 	 550.019 	
-233.478 	-0.521046 	 550.018 	
-232.454 	-0.519698 	 550.016 	
-231.501 	-0.518278 	 550.012 	
-230.539 	-0.516841 	 550.011 	
-229.499 	-0.515579 	 550.014 	
-228.465 	-0.514149 	 550.015 	
-227.53 	-0.512829 	 550.011 	
-226.466 	-0.511429 	 550.017 	
-225.484 	-0.510051 	 550.017 	
-224.516 	-0.508745 	 550.019 	
-223.578 	-0.507356 	 550.02 	
-222.499 	-0.505842 	 550.015 	
-221.471 	-0.504567 	 550.013 	
-220.524 	-0.503255 	 550.014 	
-219.493 	-0.501784 	 550.021 	
-218.519 	-0.500544 	 550.02 	
-217.573 	-0.499111 	 550.018 	
-216.449 	-0.497605 	 550.015 	
-215.571 	-0.496242 	 550.015 	
-214.477 	-0.494845 	 550.016 	
-213.569 	-0.493438 	 550.015 	
-212.532 	-0.49198 	 550.012 	
-211.528 	-0.490513 	 550.016 	
-210.543 	-0.489079 	 550.017 	
-209.53 	-0.487646 	 550.013 	
-208.529 	-0.486349 	 550.011 	
-207.474 	-0.48492 	 550.009 	
-206.551 	-0.483674 	 550.008 	
-205.832 	-0.482566 	 550.007 	
-204.6 	-0.480832 	 550.013 	
-203.423 	-0.479144 	 550.011 	
-202.542 	-0.477773 	 550.012 	
-201.457 	-0.476256 	 550.013 	
-200.486 	-0.474874 	 550.013 	
-199.479 	-0.473386 	 550.011 	
-198.502 	-0.471973 	 550.01 	
-197.475 	-0.470477 	 550.013 	
-196.438 	-0.469066 	 550.011 	
-195.464 	-0.467529 	 550.011 	
-194.418 	-0.466148 	 550.012 	
-193.483 	-0.464747 	 550.013 	
-192.518 	-0.463319 	 550.015 	
-191.451 	-0.461806 	 550.012 	
-190.486 	-0.460441 	 550.012 	
-189.492 	-0.458943 	 550.013 	
-188.533 	-0.457501 	 550.009 	
-187.517 	-0.455965 	 550.01 	
-186.459 	-0.454485 	 550.007 	
-185.554 	-0.453124 	 550.01 	
-184.514 	-0.451544 	 550.011 	
-183.525 	-0.450085 	 550.009 	
-182.537 	-0.448638 	 550.008 	
-181.491 	-0.447018 	 550.013 	
-180.538 	-0.445492 	 550.012 	
-179.543 	-0.444056 	 550.012 	
-178.503 	-0.442549 	 550.013 	
-177.547 	-0.440945 	 550.012 	
-176.48 	-0.439555 	 550.013 	
-175.513 	-0.438156 	 550.007 	
-174.569 	-0.436619 	 550.008 	
-173.4 	-0.435025 	 550.011 	
-172.522 	-0.433539 	 550.008 	
-171.512 	-0.431952 	 550.008 	
-170.691 	-0.430608 	 550.003 	
-169.843 	-0.42941 	 550.004 	
-168.65 	-0.427517 	 550.005 	
-167.515 	-0.425809 	 550.005 	
-166.454 	-0.424347 	 550.004 	
-165.522 	-0.422751 	 550.004 	
-164.515 	-0.421193 	 550.006 	
-163.544 	-0.419667 	 550.004 	
-162.433 	-0.418036 	 550.005 	
-161.546 	-0.416493 	 550.009 	
-160.488 	-0.414882 	 550.012 	
-159.556 	-0.413281 	 550.015 	
-158.585 	-0.411734 	 550.012 	
-157.497 	-0.410171 	 550.013 	
-156.499 	-0.408453 	 550.01 	
-155.495 	-0.406967 	 550.01 	
-154.516 	-0.405388 	 550.011 	
-153.509 	-0.403851 	 550.013 	
-152.451 	-0.40218 	 550.013 	
-151.564 	-0.400566 	 550.015 	
-150.464 	-0.399022 	 550.011 	
-149.493 	-0.397416 	 550.011 	
-148.382 	-0.395695 	 550.014 	
-147.561 	-0.394219 	 550.014 	
-146.515 	-0.392647 	 550.013 	
-145.502 	-0.391036 	 550.012 	
-144.537 	-0.389314 	 550.012 	
-143.5 	-0.387678 	 550.017 	
-142.517 	-0.3861 	 550.016 	
-141.477 	-0.384373 	 550.012 	
-140.498 	-0.382891 	 550.012 	
-139.497 	-0.381124 	 550.012 	
-138.568 	-0.379567 	 550.013 	
-137.531 	-0.377933 	 550.018 	
-136.5 	-0.376117 	 550.018 	
-135.451 	-0.374465 	 550.01 	
-134.516 	-0.372934 	 550.01 	
-133.608 	-0.371217 	 550.007 	
-132.59 	-0.369643 	 550.011 	
-131.813 	-0.368329 	 550.012 	
-130.636 	-0.366473 	 550.011 	
-129.584 	-0.364403 	 550.011 	
-128.508 	-0.362782 	 550.016 	
-127.367 	-0.361074 	 550.011 	
-126.563 	-0.359428 	 550.012 	
-125.485 	-0.35764 	 550.012 	
-124.556 	-0.355924 	 550.01 	
-123.495 	-0.354149 	 550.01 	
-122.614 	-0.352564 	 550.005 	
-121.547 	-0.350813 	 550.005 	
-120.546 	-0.348994 	 550.004 	
-119.426 	-0.347265 	 550.004 	
-118.59 	-0.345566 	 550.006 	
-117.553 	-0.343875 	 550.008 	
-116.549 	-0.34219 	 550.008 	
-115.554 	-0.340466 	 550.005 	
-114.589 	-0.338623 	 550.006 	
-113.561 	-0.336807 	 550.006 	
-112.384 	-0.335036 	 550.008 	
-111.536 	-0.333426 	 550.006 	
-110.502 	-0.331625 	 550.002 	
-109.513 	-0.329892 	 550 	
-108.548 	-0.328145 	 549.999 	
-107.496 	-0.326345 	 550.003 	
-106.498 	-0.324551 	 550.002 	
-105.477 	-0.322766 	 550.002 	
-104.461 	-0.32098 	 550.002 	
-103.475 	-0.319146 	 550.001 	
-102.537 	-0.317422 	 549.997 	
-101.536 	-0.315591 	 550 	
-100.496 	-0.313684 	 550.001 	
-99.5134 	-0.311963 	 550 	
-98.4436 	-0.310067 	 550 	
-97.5057 	-0.308357 	 550.001 	
-96.5767 	-0.306582 	 550 	
-95.7976 	-0.305277 	 550.001 	
-94.7188 	-0.303195 	 550.004 	
-93.5861 	-0.301013 	 550.003 	
-92.4355 	-0.299146 	 550.005 	
-91.5575 	-0.297306 	 550.006 	
-90.5896 	-0.295532 	 550.006 	
-89.5198 	-0.293479 	 550 	
-88.5489 	-0.291662 	 550 	
-87.4581 	-0.289785 	 549.999 	
-86.5262 	-0.287942 	 550 	
-85.5104 	-0.286116 	 550.004 	
-84.5305 	-0.284158 	 550.002 	
-83.4937 	-0.282358 	 550.003 	
-82.5168 	-0.280319 	 550.002 	
-81.4889 	-0.278485 	 550.004 	
-80.4791 	-0.27663 	 550.001 	
-79.5801 	-0.274715 	 550.005 	
-78.5523 	-0.272793 	 550.003 	
-77.5095 	-0.27095 	 550.011 	
-76.5026 	-0.269053 	 550.012 	
-75.5018 	-0.267038 	 550.005 	
-74.426 	-0.265107 	 550.006 	
-73.566 	-0.263231 	 550.006 	
-72.5292 	-0.261298 	 550.006 	
-71.5163 	-0.259218 	 550.002 	
-70.5395 	-0.257389 	 550.001 	
-69.4847 	-0.255342 	 549.998 	
-68.5857 	-0.253439 	 549.999 	
-67.5069 	-0.251516 	 549.999 	
-66.4911 	-0.249499 	 549.996 	
-65.5322 	-0.24752 	 549.995 	
-64.5493 	-0.245437 	 549.997 	
-63.4615 	-0.243426 	 549.995 	
-62.4217 	-0.241181 	 549.998 	
-61.5437 	-0.239406 	 549.999 	
-60.5399 	-0.237415 	 549.998 	
-59.7398 	-0.235913 	 549.997 	
-58.8348 	-0.234092 	 549.999 	
-57.5553 	-0.231317 	 550 	
-56.5125 	-0.229366 	 549.996 	
-55.5775 	-0.227248 	 549.998 	
-54.5767 	-0.225211 	 549.998 	
-53.4859 	-0.223139 	 549.998 	
-52.548 	-0.221002 	 550 	
-51.4962 	-0.219022 	 550.001 	
-50.5163 	-0.216952 	 550.001 	
-49.4585 	-0.214903 	 549.996 	
-48.4906 	-0.212808 	 550 	
-47.5976 	-0.21079 	 550 	
-46.5189 	-0.208556 	 549.999 	
-45.512 	-0.206468 	 549.998 	
-44.4752 	-0.204426 	 550.002 	
-43.5343 	-0.202437 	 550.003 	
-42.4765 	-0.20019 	 550.003 	
-41.5356 	-0.198165 	 550 	
-40.5857 	-0.196085 	 549.999 	
-39.5548 	-0.193832 	 549.999 	
-38.4851 	-0.191686 	 550.004 	
-37.5351 	-0.18968 	 550.004 	
-36.5433 	-0.187482 	 550.005 	
-35.4495 	-0.185261 	 550.005 	
-34.4996 	-0.183214 	 550.013 	
-33.5827 	-0.181106 	 550.013 	
-32.5099 	-0.178823 	 550.012 	
-31.563 	-0.176624 	 550.011 	
-30.4992 	-0.174476 	 550.009 	
-29.5013 	-0.172193 	 550.009 	
-28.5574 	-0.170083 	 550.008 	
-27.4816 	-0.167763 	 550.011 	
-26.5107 	-0.165623 	 550.011 	
-25.5848 	-0.163389 	 550.012 	
-24.506 	-0.161233 	 550.008 	
-23.4932 	-0.158983 	 550.01 	
-22.8669 	-0.157588 	 550.012 	
-21.7192 	-0.154988 	 550.009 	
-20.5086 	-0.152215 	 550.008 	
-19.4598 	-0.150018 	 550.008 	
-18.6297 	-0.147908 	 550.008 	
-17.521 	-0.145537 	 550.003 	
-16.5141 	-0.14332 	 550.005 	
-15.5283 	-0.140971 	 550.005 	
-14.4645 	-0.13872 	 550.005 	
-13.5595 	-0.136532 	 550.005 	
-12.4867 	-0.133998 	 550 	
-11.5548 	-0.131821 	 550.003 	
-10.4161 	-0.129423 	 550.002 	
-9.56208 	-0.127299 	 550.007 	
-8.52227 	-0.124734 	 550.007 	
-7.50343 	-0.122378 	 550.005 	
-6.54752 	-0.120106 	 550.001 	
-5.53168 	-0.117819 	 549.999 	
-4.49187 	-0.115392 	 549.997 	
-3.51199 	-0.112926 	 550 	
-2.57106 	-0.110713 	 549.999 	
-1.53724 	-0.108246 	 549.998 	
-0.503425 	-0.105798 	 549.999 	
 0.491027 	-0.103393 	 550 	
 1.48506 	-0.101041 	 550.002 	
 2.44016 	-0.0985794 	 550.003 	
 3.46713 	-0.0961087 	 550.006 	
 4.52104 	-0.0938765 	 550.005 	
 5.48213 	-0.0914443 	 550.006 	
 6.47916 	-0.0890274 	 549.994 	
 7.44624 	-0.0865922 	 549.997 	
 8.51213 	-0.0841907 	 550 	
 9.50616 	-0.0818134 	 550 	
 10.5062 	-0.0793659 	 550.004 	
 11.4313 	-0.0769674 	 550 	
 12.4583 	-0.0745516 	 550.002 	
 13.2727 	-0.0726708 	 550 	
 14.135 	-0.0704296 	 550 	
 15.4584 	-0.0672655 	 550.003 	
 16.4763 	-0.0648538 	 549.996 	
 17.5362 	-0.0623551 	 549.999 	
 18.4554 	-0.0599274 	 550.003 	
 19.4644 	-0.0575714 	 549.999 	
 20.4195 	-0.0549512 	 550 	
 21.4345 	-0.0524969 	 549.997 	
 22.4555 	-0.0499776 	 549.997 	
 23.4765 	-0.0476501 	 549.994 	
 24.4555 	-0.0450841 	 549.996 	
 25.5514 	-0.0425991 	 550.002 	
 26.4107 	-0.0402993 	 550.001 	
 27.5125 	-0.0378192 	 550 	
 28.5245 	-0.0351874 	 550.004 	
 29.4706 	-0.0327302 	 550.003 	
 30.4317 	-0.0303327 	 550.003 	
 31.3988 	-0.0279577 	 550.004 	
 32.5455 	-0.0254235 	 550.004 	
 33.4497 	-0.0228354 	 550.006 	
 34.4916 	-0.0204555 	 550.003 	
 35.4827 	-0.0179796 	 550.007 	
 36.5575 	-0.0153305 	 550.002 	
 37.4767 	-0.0128714 	 550.001 	
 38.4707 	-0.0102605 	 550.002 	
 39.4468 	-0.00799056 	 550.005 	
 40.5067 	-0.00547649 	 550.005 	
 41.4439 	-0.00278223 	 550.005 	
 42.4648 	-0.0004747 	 550.005 	
 43.381 	 0.00208479 	 550.002 	
 44.4349 	 0.00452036 	 549.998 	
 45.5038 	 0.00712976 	 549.998 	
 46.435 	 0.00961673 	 550.001 	
 47.423 	 0.0121267 	 550 	
 48.4949 	 0.0148625 	 549.999 	
 49.3392 	 0.0169449 	 550.006 	
 50.1626 	 0.0189627 	 550.007 	
 51.3273 	 0.0219149 	 550.013 	
 52.4111 	 0.024743 	 550.011 	
 53.5429 	 0.0273807 	 550.017 	
 54.4531 	 0.0298194 	 550.014 	
 55.4261 	 0.0324187 	 550.013 	
 56.4591 	 0.0348339 	 550.006 	
 57.498 	 0.0372856 	 550.007 	
 58.4172 	 0.0399667 	 550.011 	
 59.4951 	 0.0425576 	 550.008 	
 60.4382 	 0.0447788 	 550.01 	
 61.4412 	 0.0475155 	 550.007 	
 62.4442 	 0.050057 	 550.009 	
 63.546 	 0.052644 	 550.009 	
 64.4772 	 0.0549988 	 550.008 	
 65.4173 	 0.0574955 	 550.007 	
 66.5341 	 0.0602365 	 550.007 	
 67.4144 	 0.0626786 	 550.003 	
 68.4503 	 0.0652772 	 550.003 	
 69.4773 	 0.0677957 	 550.007 	
 70.4713 	 0.0703835 	 550.006 	
 71.4594 	 0.0728323 	 550.01 	
 72.5402 	 0.0754339 	 550.005 	
 73.4444 	 0.077969 	 550.005 	
 74.4654 	 0.0805388 	 550.005 	
 75.3936 	 0.0831196 	 550.005 	
 76.5193 	 0.0856851 	 550.003 	
 77.5014 	 0.08827 	 550.004 	
 78.3906 	 0.0908052 	 550.005 	
 79.4026 	 0.0932993 	 550.001 	
 80.4895 	 0.0957717 	 550.001 	
 81.5314 	 0.098417 	 550.006 	
 82.4805 	 0.100971 	 550.006 	
 83.4147 	 0.103492 	 550.007 	
 84.4776 	 0.105928 	 550.005 	
 85.4536 	 0.108462 	 550.006 	
 86.4926 	 0.110974 	 550.005 	
 87.1782 	 0.11292 	 550.014 	
 88.1453 	 0.11515 	 550.014 	
 89.4567 	 0.11867 	 550.01 	
 90.4926 	 0.121149 	 550.011 	
 91.4507 	 0.123686 	 550.007 	
 92.4418 	 0.126138 	 550.015 	
 93.6124 	 0.128738 	 550.015 	
 94.2951 	 0.131124 	 550.007 	
 95.4688 	 0.133802 	 550.006 	
 96.4838 	 0.136364 	 550.004 	
 97.5107 	 0.138935 	 550.008 	
 98.5287 	 0.141513 	 550.009 	
 99.3371 	 0.143889 	 550.012 	
 100.514 	 0.146452 	 550.01 	
 101.406 	 0.149025 	 550.01 	
 102.523 	 0.151512 	 550.008 	
 103.49 	 0.154047 	 550.008 	
 104.478 	 0.156555 	 550.009 	
 105.49 	 0.159097 	 550.01 	
 106.463 	 0.16175 	 550.009 	
 107.499 	 0.164307 	 550.011 	
 108.484 	 0.166782 	 550.013 	
 109.478 	 0.169416 	 550.01 	
 110.508 	 0.171963 	 550.011 	
 111.466 	 0.174336 	 550.012 	
 112.394 	 0.176709 	 550.007 	
 113.505 	 0.179407 	 550.009 	
 114.436 	 0.18205 	 549.999 	
 115.538 	 0.184509 	 550.001 	
 116.421 	 0.187038 	 550.003 	
 117.541 	 0.18955 	 550 	
 118.432 	 0.192045 	 550 	
 119.46 	 0.194632 	 550 	
 120.475 	 0.197113 	 550 	
 121.412 	 0.199766 	 549.999 	
 122.492 	 0.202299 	 549.999 	
 123.308 	 0.204479 	 549.995 	
 124.188 	 0.206456 	 549.995 	
 125.4 	 0.209583 	 549.999 	
 126.402 	 0.212315 	 549.998 	
 127.492 	 0.21485 	 550 	
 128.585 	 0.217274 	 549.997 	
 129.457 	 0.219776 	 549.997 	
 130.481 	 0.222237 	 549.997 	
 131.477 	 0.224795 	 549.996 	
 132.472 	 0.227293 	 549.994 	
 133.422 	 0.229715 	 550 	
 134.371 	 0.232244 	 550 	
 135.565 	 0.234779 	 550.003 	
 136.522 	 0.237198 	 550.002 	
 137.478 	 0.23982 	 550.004 	
 138.467 	 0.242161 	 550.002 	
 139.543 	 0.244751 	 550.003 	
 140.441 	 0.247145 	 549.999 	
 141.317 	 0.249691 	 549.998 	
 142.736 	 0.252267 	 549.998 	
 143.368 	 0.254277 	 550.003 	
 144.253 	 0.256879 	 550.003 	
 145.679 	 0.259843 	 550.003 	
 146.402 	 0.26236 	 550.006 	
 147.524 	 0.264591 	 550.007 	
 148.301 	 0.26685 	 550.007 	
 149.419 	 0.269544 	 550.006 	
 150.453 	 0.271929 	 550.008 	
 151.551 	 0.274292 	 550.009 	
 152.428 	 0.276762 	 550.007 	
 153.434 	 0.279192 	 550.004 	
 154.489 	 0.281621 	 550.004 	
 155.479 	 0.283972 	 550.006 	
 156.473 	 0.286518 	 550.003 	
 157.263 	 0.288956 	 550 	
 158.495 	 0.291311 	 550.008 	
 159.786 	 0.293698 	 550.006 	
 160.554 	 0.29566 	 550.008 	
 161.444 	 0.298131 	 550.003 	
 162.203 	 0.301104 	 550.004 	
 163.57 	 0.303702 	 550.001 	
 164.386 	 0.306026 	 550.005 	
 165.353 	 0.3084 	 550.002 	
 166.524 	 0.310924 	 550.006 	
 167.566 	 0.313447 	 550.008 	
 168.472 	 0.315827 	 550.011 	
 169.337 	 0.318147 	 550.011 	
 170.53 	 0.320763 	 550.007 	
 171.478 	 0.323028 	 550.009 	
 172.756 	 0.325501 	 550.01 	
 173.294 	 0.327571 	 550.013 	
 174.675 	 0.330342 	 550.013 	
 175.352 	 0.332225 	 550.013 	
 176.572 	 0.334495 	 550.011 	
 177.291 	 0.336914 	 550.01 	
 178.256 	 0.339473 	 550.011 	
 179.654 	 0.342365 	 550.011 	
 180.544 	 0.344494 	 550.011 	
 181.41 	 0.346846 	 550.011 	
 182.333 	 0.349395 	 550.01 	
 183.484 	 0.351596 	 550.011 	
 184.333 	 0.353959 	 550.008 	
 185.545 	 0.356683 	 550.011 	
 186.455 	 0.358854 	 550.009 	
 187.418 	 0.361139 	 550.009 	
 188.717 	 0.363563 	 550.005 	
 189.596 	 0.366012 	 550.005 	
 190.105 	 0.368144 	 550.003 	
 191.325 	 0.370485 	 550.003 	
 192.295 	 0.372964 	 550.002 	
 193.626 	 0.375313 	 550.007 	
 194.31 	 0.377584 	 550.007 	
 195.598 	 0.380002 	 550.009 	
 196.568 	 0.382069 	 550.008 	
 197.045 	 0.383831 	 550.01 	
 198.251 	 0.386712 	 550.014 	
 199.391 	 0.389336 	 550.015 	
 200.539 	 0.391726 	 550.012 	
 201.343 	 0.393948 	 550.017 	
 202.623 	 0.396205 	 550.017 	
 203.469 	 0.398583 	 550.017 	
 204.397 	 0.400775 	 550.014 	
 205.544 	 0.403349 	 550.017 	
 206.481 	 0.405287 	 550.013 	
 207.373 	 0.407386 	 550.012 	
 208.39 	 0.409983 	 550.014 	
 209.57 	 0.412425 	 550.016 	
 210.345 	 0.414522 	 550.014 	
 211.517 	 0.416885 	 550.016 	
 212.436 	 0.41899 	 550.017 	
 213.486 	 0.421262 	 550.014 	
 214.398 	 0.423461 	 550.009 	
 215.466 	 0.42575 	 550.009 	
 216.442 	 0.427971 	 550.013 	
 217.432 	 0.430131 	 550.012 	
 218.399 	 0.432398 	 550.013 	
 219.529 	 0.434616 	 550.013 	
 220.411 	 0.436958 	 550.012 	
 221.435 	 0.439118 	 550.011 	
 222.407 	 0.441374 	 550.012 	
 223.571 	 0.443573 	 550.012 	
 224.44 	 0.445707 	 550.013 	
 225.431 	 0.447997 	 550.014 	
 226.42 	 0.450131 	 550.014 	
 227.468 	 0.452267 	 550.016 	
 228.489 	 0.45468 	 550.016 	
 229.434 	 0.456755 	 550.016 	
 230.477 	 0.459023 	 550.016 	
 231.399 	 0.461205 	 550.016 	
 232.429 	 0.463435 	 550.013 	
 233.377 	 0.465562 	 550.014 	
 234.223 	 0.467258 	 550.013 	
 235.157 	 0.469325 	 550.013 	
 236.44 	 0.472021 	 550.01 	
 237.459 	 0.474122 	 550.012 	
 238.518 	 0.476375 	 550.011 	
 239.464 	 0.478502 	 550.014 	
 240.521 	 0.48065 	 550.014 	
 241.465 	 0.482714 	 550.019 	
 242.489 	 0.484828 	 550.018 	
 243.489 	 0.487082 	 550.017 	
 244.316 	 0.489054 	 550.019 	
 245.569 	 0.491315 	 550.019 	
 246.424 	 0.493383 	 550.014 	
 247.443 	 0.495424 	 550.015 	
 248.491 	 0.497567 	 550.014 	
 249.524 	 0.499685 	 550.014 	
 250.443 	 0.501653 	 550.015 	
 251.467 	 0.503814 	 550.012 	
 252.44 	 0.505832 	 550.013 	
 253.451 	 0.50789 	 550.013 	
 254.491 	 0.510046 	 550.011 	
 255.508 	 0.512186 	 550.01 	
 256.412 	 0.51407 	 550.011 	
 257.424 	 0.516151 	 550.013 	
 258.449 	 0.518213 	 550.011 	
 259.407 	 0.520217 	 550.012 	
 260.454 	 0.522226 	 550.012 	
 261.505 	 0.524401 	 550.013 	
 262.472 	 0.526548 	 550.016 	
 263.449 	 0.528387 	 550.018 	
 264.446 	 0.530537 	 550.015 	
 265.392 	 0.532535 	 550.011 	
 266.497 	 0.534593 	 550.011 	
 267.566 	 0.53657 	 550.021 	
 268.425 	 0.538476 	 550.02 	
 269.445 	 0.540453 	 550.012 	
 270.508 	 0.542374 	 550.012 	
 271.065 	 0.543877 	 550.013 	
 272.366 	 0.546355 	 550.007 	
 273.463 	 0.548502 	 550.007 	
 274.451 	 0.550565 	 550.012 	
 275.483 	 0.552665 	 550.01 	
 276.447 	 0.554492 	 550.01 	
 277.526 	 0.556514 	 550.009 	
 278.387 	 0.558338 	 550.016 	
 279.484 	 0.560391 	 550.016 	
 280.486 	 0.562439 	 550.016 	
 281.487 	 0.564303 	 550.015 	
 282.457 	 0.566195 	 550.014 	
 283.426 	 0.568124 	 550.015 	
 284.445 	 0.570041 	 550.015 	
 285.432 	 0.571898 	 550.018 	
 286.487 	 0.573817 	 550.016 	
 287.516 	 0.575842 	 550.019 	
 288.412 	 0.577646 	 550.017 	
 289.394 	 0.579558 	 550.017 	
 290.388 	 0.58145 	 550.015 	
 291.505 	 0.583422 	 550.019 	
 292.445 	 0.58528 	 550.019 	
 293.453 	 0.587103 	 550.019 	
 294.472 	 0.589009 	 550.017 	
 295.475 	 0.590854 	 550.015 	
 296.445 	 0.592736 	 550.017 	
 297.389 	 0.594605 	 550.015 	
 298.499 	 0.596446 	 550.017 	

	
	
